 #---------------------------------------------------------------------------
 #   gamma p --> pi0 p                     Oct2014
 #
 #        Q - polar angle of pi0 meson in CMS
 #        err2 = sqrt(stat**2 + (0.04*ds/dOmega)**2)
 #---------------------------------------------------------------------------
 # Eg[MeV]  Eg_min   Eg_max   W[GeV]  cos(Q)    Q    ds/dOmega  stat.  err2
 #                                            [deg]   [Âµb/sr]   err.   
 #--------------------------------------------------------------------------
  1427.90  1424.73  1431.07  1.88676  -0.833  146.44  1.3414  0.0631  0.0653
  1427.90  1424.73  1431.07  1.88676  -0.767  140.06  1.2518  0.0330  0.0365
  1427.90  1424.73  1431.07  1.88676  -0.700  134.43  0.9216  0.0165  0.0201
  1427.90  1424.73  1431.07  1.88676  -0.633  129.30  0.7520  0.0104  0.0140
  1427.90  1424.73  1431.07  1.88676  -0.567  124.52  0.6575  0.0082  0.0116
  1427.90  1424.73  1431.07  1.88676  -0.500  120.00  0.6128  0.0073  0.0106
  1427.90  1424.73  1431.07  1.88676  -0.433  115.68  0.6250  0.0070  0.0105
  1427.90  1424.73  1431.07  1.88676  -0.367  111.51  0.6390  0.0068  0.0105
  1427.90  1424.73  1431.07  1.88676  -0.300  107.46  0.6720  0.0066  0.0107
  1427.90  1424.73  1431.07  1.88676  -0.233  103.49  0.7483  0.0070  0.0117
  1427.90  1424.73  1431.07  1.88676  -0.167   99.59  0.8128  0.0073  0.0125
  1427.90  1424.73  1431.07  1.88676  -0.100   95.74  0.8741  0.0079  0.0135
  1427.90  1424.73  1431.07  1.88676  -0.033   91.91  0.9204  0.0083  0.0142
  1427.90  1424.73  1431.07  1.88676   0.033   88.09  0.9188  0.0084  0.0142
  1427.90  1424.73  1431.07  1.88676   0.100   84.26  0.8875  0.0082  0.0138
  1427.90  1424.73  1431.07  1.88676   0.167   80.41  0.8314  0.0080  0.0131
  1427.90  1424.73  1431.07  1.88676   0.233   76.51  0.7376  0.0074  0.0118
  1427.90  1424.73  1431.07  1.88676   0.300   72.54  0.6186  0.0067  0.0102
  1427.90  1424.73  1431.07  1.88676   0.367   68.49  0.5107  0.0061  0.0088
  1427.90  1424.73  1431.07  1.88676   0.433   64.32  0.4521  0.0058  0.0081
  1427.90  1424.73  1431.07  1.88676   0.500   60.00  0.4930  0.0064  0.0089
  1427.90  1424.73  1431.07  1.88676   0.567   55.48  0.5556  0.0072  0.0100
  1427.90  1424.73  1431.07  1.88676   0.633   50.70  0.7860  0.0103  0.0142
  1427.90  1424.73  1431.07  1.88676   0.700   45.57  1.2084  0.0168  0.0226
  1427.90  1424.73  1431.07  1.88676   0.767   39.94  1.6254  0.0261  0.0331
  1427.90  1424.73  1431.07  1.88676   0.833   33.56  2.0119  0.0652  0.0699
  1434.32  1431.07  1437.55  1.88995  -0.833  146.44  1.3327  0.0620  0.0642
  1434.32  1431.07  1437.55  1.88995  -0.767  140.06  1.1701  0.0323  0.0355
  1434.32  1431.07  1437.55  1.88995  -0.700  134.43  0.9151  0.0166  0.0202
  1434.32  1431.07  1437.55  1.88995  -0.633  129.30  0.7404  0.0105  0.0140
  1434.32  1431.07  1437.55  1.88995  -0.567  124.52  0.6528  0.0084  0.0117
  1434.32  1431.07  1437.55  1.88995  -0.500  120.00  0.6319  0.0075  0.0109
  1434.32  1431.07  1437.55  1.88995  -0.433  115.68  0.6209  0.0071  0.0105
  1434.32  1431.07  1437.55  1.88995  -0.367  111.51  0.6401  0.0070  0.0106
  1434.32  1431.07  1437.55  1.88995  -0.300  107.46  0.6764  0.0069  0.0109
  1434.32  1431.07  1437.55  1.88995  -0.233  103.49  0.7473  0.0072  0.0118
  1434.32  1431.07  1437.55  1.88995  -0.167   99.59  0.8113  0.0076  0.0127
  1434.32  1431.07  1437.55  1.88995  -0.100   95.74  0.9042  0.0084  0.0141
  1434.32  1431.07  1437.55  1.88995  -0.033   91.91  0.9231  0.0086  0.0144
  1434.32  1431.07  1437.55  1.88995   0.033   88.09  0.9353  0.0087  0.0146
  1434.32  1431.07  1437.55  1.88995   0.100   84.26  0.8740  0.0084  0.0138
  1434.32  1431.07  1437.55  1.88995   0.167   80.41  0.8211  0.0081  0.0131
  1434.32  1431.07  1437.55  1.88995   0.233   76.51  0.7270  0.0077  0.0119
  1434.32  1431.07  1437.55  1.88995   0.300   72.54  0.6080  0.0068  0.0102
  1434.32  1431.07  1437.55  1.88995   0.367   68.49  0.4935  0.0060  0.0086
  1434.32  1431.07  1437.55  1.88995   0.433   64.32  0.4330  0.0058  0.0079
  1434.32  1431.07  1437.55  1.88995   0.500   60.00  0.4814  0.0064  0.0088
  1434.32  1431.07  1437.55  1.88995   0.567   55.48  0.5585  0.0073  0.0101
  1434.32  1431.07  1437.55  1.88995   0.633   50.70  0.7551  0.0103  0.0140
  1434.32  1431.07  1437.55  1.88995   0.700   45.57  1.2025  0.0175  0.0231
  1434.32  1431.07  1437.55  1.88995   0.767   39.94  1.5886  0.0267  0.0333
  1434.32  1431.07  1437.55  1.88995   0.833   33.56  2.0692  0.0731  0.0775
  1440.80  1437.55  1444.04  1.89317  -0.833  146.44  1.2823  0.0577  0.0599
  1440.80  1437.55  1444.04  1.89317  -0.767  140.06  1.2457  0.0319  0.0355
  1440.80  1437.55  1444.04  1.89317  -0.700  134.43  0.9237  0.0160  0.0197
  1440.80  1437.55  1444.04  1.89317  -0.633  129.30  0.7452  0.0103  0.0139
  1440.80  1437.55  1444.04  1.89317  -0.567  124.52  0.6715  0.0082  0.0117
  1440.80  1437.55  1444.04  1.89317  -0.500  120.00  0.6203  0.0072  0.0106
  1440.80  1437.55  1444.04  1.89317  -0.433  115.68  0.6155  0.0068  0.0103
  1440.80  1437.55  1444.04  1.89317  -0.367  111.51  0.6476  0.0068  0.0106
  1440.80  1437.55  1444.04  1.89317  -0.300  107.46  0.7067  0.0069  0.0112
  1440.80  1437.55  1444.04  1.89317  -0.233  103.49  0.7585  0.0070  0.0118
  1440.80  1437.55  1444.04  1.89317  -0.167   99.59  0.8299  0.0075  0.0128
  1440.80  1437.55  1444.04  1.89317  -0.100   95.74  0.8994  0.0080  0.0138
  1440.80  1437.55  1444.04  1.89317  -0.033   91.91  0.9382  0.0084  0.0144
  1440.80  1437.55  1444.04  1.89317   0.033   88.09  0.9364  0.0086  0.0145
  1440.80  1437.55  1444.04  1.89317   0.100   84.26  0.8984  0.0084  0.0140
  1440.80  1437.55  1444.04  1.89317   0.167   80.41  0.8287  0.0080  0.0131
  1440.80  1437.55  1444.04  1.89317   0.233   76.51  0.7383  0.0075  0.0119
  1440.80  1437.55  1444.04  1.89317   0.300   72.54  0.6108  0.0068  0.0102
  1440.80  1437.55  1444.04  1.89317   0.367   68.49  0.4885  0.0059  0.0085
  1440.80  1437.55  1444.04  1.89317   0.433   64.32  0.4392  0.0058  0.0080
  1440.80  1437.55  1444.04  1.89317   0.500   60.00  0.4644  0.0061  0.0084
  1440.80  1437.55  1444.04  1.89317   0.567   55.48  0.5581  0.0072  0.0100
  1440.80  1437.55  1444.04  1.89317   0.633   50.70  0.7568  0.0102  0.0139
  1440.80  1437.55  1444.04  1.89317   0.700   45.57  1.1921  0.0166  0.0223
  1440.80  1437.55  1444.04  1.89317   0.767   39.94  1.6225  0.0262  0.0331
  1440.80  1437.55  1444.04  1.89317   0.833   33.56  2.0751  0.0685  0.0732
  1447.29  1444.04  1450.56  1.89638  -0.833  146.44  1.2966  0.0555  0.0578
  1447.29  1444.04  1450.56  1.89638  -0.767  140.06  1.1991  0.0303  0.0338
  1447.29  1444.04  1450.56  1.89638  -0.700  134.43  0.9303  0.0159  0.0197
  1447.29  1444.04  1450.56  1.89638  -0.633  129.30  0.7357  0.0100  0.0136
  1447.29  1444.04  1450.56  1.89638  -0.567  124.52  0.6481  0.0079  0.0113
  1447.29  1444.04  1450.56  1.89638  -0.500  120.00  0.5890  0.0069  0.0101
  1447.29  1444.04  1450.56  1.89638  -0.433  115.68  0.6092  0.0066  0.0101
  1447.29  1444.04  1450.56  1.89638  -0.367  111.51  0.6380  0.0065  0.0103
  1447.29  1444.04  1450.56  1.89638  -0.300  107.46  0.6817  0.0065  0.0107
  1447.29  1444.04  1450.56  1.89638  -0.233  103.49  0.7705  0.0068  0.0118
  1447.29  1444.04  1450.56  1.89638  -0.167   99.59  0.8295  0.0072  0.0126
  1447.29  1444.04  1450.56  1.89638  -0.100   95.74  0.8938  0.0076  0.0135
  1447.29  1444.04  1450.56  1.89638  -0.033   91.91  0.9263  0.0080  0.0141
  1447.29  1444.04  1450.56  1.89638   0.033   88.09  0.9380  0.0082  0.0143
  1447.29  1444.04  1450.56  1.89638   0.100   84.26  0.8822  0.0080  0.0136
  1447.29  1444.04  1450.56  1.89638   0.167   80.41  0.8134  0.0076  0.0127
  1447.29  1444.04  1450.56  1.89638   0.233   76.51  0.7108  0.0071  0.0114
  1447.29  1444.04  1450.56  1.89638   0.300   72.54  0.5889  0.0063  0.0097
  1447.29  1444.04  1450.56  1.89638   0.367   68.49  0.4762  0.0056  0.0082
  1447.29  1444.04  1450.56  1.89638   0.433   64.32  0.4208  0.0055  0.0076
  1447.29  1444.04  1450.56  1.89638   0.500   60.00  0.4521  0.0059  0.0082
  1447.29  1444.04  1450.56  1.89638   0.567   55.48  0.5385  0.0068  0.0096
  1447.29  1444.04  1450.56  1.89638   0.633   50.70  0.7051  0.0090  0.0126
  1447.29  1444.04  1450.56  1.89638   0.700   45.57  1.1038  0.0142  0.0198
  1447.29  1444.04  1450.56  1.89638   0.767   39.94  1.5842  0.0240  0.0311
  1447.29  1444.04  1450.56  1.89638   0.833   33.56  1.9578  0.0608  0.0655
  1453.79  1450.56  1457.04  1.89959  -0.833  146.44  1.2853  0.0567  0.0589
  1453.79  1450.56  1457.04  1.89959  -0.767  140.06  1.2113  0.0306  0.0341
  1453.79  1450.56  1457.04  1.89959  -0.700  134.43  0.9206  0.0162  0.0199
  1453.79  1450.56  1457.04  1.89959  -0.633  129.30  0.7354  0.0102  0.0137
  1453.79  1450.56  1457.04  1.89959  -0.567  124.52  0.6232  0.0079  0.0111
  1453.79  1450.56  1457.04  1.89959  -0.500  120.00  0.6147  0.0073  0.0106
  1453.79  1450.56  1457.04  1.89959  -0.433  115.68  0.6145  0.0069  0.0103
  1453.79  1450.56  1457.04  1.89959  -0.367  111.51  0.6355  0.0067  0.0104
  1453.79  1450.56  1457.04  1.89959  -0.300  107.46  0.6832  0.0068  0.0109
  1453.79  1450.56  1457.04  1.89959  -0.233  103.49  0.7831  0.0073  0.0122
  1453.79  1450.56  1457.04  1.89959  -0.167   99.59  0.8409  0.0076  0.0130
  1453.79  1450.56  1457.04  1.89959  -0.100   95.74  0.9158  0.0081  0.0140
  1453.79  1450.56  1457.04  1.89959  -0.033   91.91  0.9410  0.0085  0.0145
  1453.79  1450.56  1457.04  1.89959   0.033   88.09  0.9520  0.0086  0.0147
  1453.79  1450.56  1457.04  1.89959   0.100   84.26  0.8855  0.0082  0.0138
  1453.79  1450.56  1457.04  1.89959   0.167   80.41  0.8316  0.0080  0.0131
  1453.79  1450.56  1457.04  1.89959   0.233   76.51  0.7033  0.0073  0.0114
  1453.79  1450.56  1457.04  1.89959   0.300   72.54  0.5757  0.0064  0.0096
  1453.79  1450.56  1457.04  1.89959   0.367   68.49  0.4594  0.0057  0.0081
  1453.79  1450.56  1457.04  1.89959   0.433   64.32  0.4010  0.0054  0.0074
  1453.79  1450.56  1457.04  1.89959   0.500   60.00  0.4502  0.0061  0.0083
  1453.79  1450.56  1457.04  1.89959   0.567   55.48  0.5307  0.0068  0.0095
  1453.79  1450.56  1457.04  1.89959   0.633   50.70  0.7519  0.0102  0.0139
  1453.79  1450.56  1457.04  1.89959   0.700   45.57  1.1564  0.0161  0.0216
  1453.79  1450.56  1457.04  1.89959   0.767   39.94  1.6362  0.0267  0.0336
  1453.79  1450.56  1457.04  1.89959   0.833   33.56  2.0523  0.0675  0.0722
  1460.28  1457.04  1463.51  1.90280  -0.833  146.44  1.2135  0.0515  0.0537
  1460.28  1457.04  1463.51  1.90280  -0.767  140.06  1.2110  0.0289  0.0326
  1460.28  1457.04  1463.51  1.90280  -0.700  134.43  0.9228  0.0156  0.0194
  1460.28  1457.04  1463.51  1.90280  -0.633  129.30  0.7284  0.0098  0.0134
  1460.28  1457.04  1463.51  1.90280  -0.567  124.52  0.6434  0.0078  0.0112
  1460.28  1457.04  1463.51  1.90280  -0.500  120.00  0.6139  0.0070  0.0104
  1460.28  1457.04  1463.51  1.90280  -0.433  115.68  0.6013  0.0066  0.0100
  1460.28  1457.04  1463.51  1.90280  -0.367  111.51  0.6427  0.0064  0.0103
  1460.28  1457.04  1463.51  1.90280  -0.300  107.46  0.6858  0.0066  0.0108
  1460.28  1457.04  1463.51  1.90280  -0.233  103.49  0.7828  0.0069  0.0120
  1460.28  1457.04  1463.51  1.90280  -0.167   99.59  0.8402  0.0071  0.0127
  1460.28  1457.04  1463.51  1.90280  -0.100   95.74  0.9211  0.0078  0.0139
  1460.28  1457.04  1463.51  1.90280  -0.033   91.91  0.9377  0.0078  0.0141
  1460.28  1457.04  1463.51  1.90280   0.033   88.09  0.9336  0.0081  0.0142
  1460.28  1457.04  1463.51  1.90280   0.100   84.26  0.8838  0.0078  0.0135
  1460.28  1457.04  1463.51  1.90280   0.167   80.41  0.8065  0.0074  0.0125
  1460.28  1457.04  1463.51  1.90280   0.233   76.51  0.7037  0.0069  0.0112
  1460.28  1457.04  1463.51  1.90280   0.300   72.54  0.5650  0.0061  0.0093
  1460.28  1457.04  1463.51  1.90280   0.367   68.49  0.4470  0.0054  0.0078
  1460.28  1457.04  1463.51  1.90280   0.433   64.32  0.4005  0.0053  0.0073
  1460.28  1457.04  1463.51  1.90280   0.500   60.00  0.4336  0.0059  0.0080
  1460.28  1457.04  1463.51  1.90280   0.567   55.48  0.5194  0.0065  0.0092
  1460.28  1457.04  1463.51  1.90280   0.633   50.70  0.6990  0.0089  0.0125
  1460.28  1457.04  1463.51  1.90280   0.700   45.57  1.0754  0.0136  0.0191
  1460.28  1457.04  1463.51  1.90280   0.767   39.94  1.5308  0.0225  0.0295
  1460.28  1457.04  1463.51  1.90280   0.833   33.56  1.9347  0.0588  0.0636
  1466.74  1463.51  1469.97  1.90598  -0.833  146.44  1.2068  0.0507  0.0529
  1466.74  1463.51  1469.97  1.90598  -0.767  140.06  1.1425  0.0280  0.0314
  1466.74  1463.51  1469.97  1.90598  -0.700  134.43  0.9286  0.0154  0.0193
  1466.74  1463.51  1469.97  1.90598  -0.633  129.30  0.7081  0.0097  0.0131
  1466.74  1463.51  1469.97  1.90598  -0.567  124.52  0.6350  0.0076  0.0110
  1466.74  1463.51  1469.97  1.90598  -0.500  120.00  0.5909  0.0069  0.0101
  1466.74  1463.51  1469.97  1.90598  -0.433  115.68  0.5907  0.0064  0.0098
  1466.74  1463.51  1469.97  1.90598  -0.367  111.51  0.6445  0.0064  0.0103
  1466.74  1463.51  1469.97  1.90598  -0.300  107.46  0.6933  0.0064  0.0108
  1466.74  1463.51  1469.97  1.90598  -0.233  103.49  0.7773  0.0069  0.0119
  1466.74  1463.51  1469.97  1.90598  -0.167   99.59  0.8506  0.0071  0.0128
  1466.74  1463.51  1469.97  1.90598  -0.100   95.74  0.9183  0.0077  0.0138
  1466.74  1463.51  1469.97  1.90598  -0.033   91.91  0.9537  0.0079  0.0143
  1466.74  1463.51  1469.97  1.90598   0.033   88.09  0.9531  0.0081  0.0144
  1466.74  1463.51  1469.97  1.90598   0.100   84.26  0.8903  0.0078  0.0136
  1466.74  1463.51  1469.97  1.90598   0.167   80.41  0.8018  0.0075  0.0125
  1466.74  1463.51  1469.97  1.90598   0.233   76.51  0.6919  0.0068  0.0110
  1466.74  1463.51  1469.97  1.90598   0.300   72.54  0.5625  0.0061  0.0093
  1466.74  1463.51  1469.97  1.90598   0.367   68.49  0.4331  0.0053  0.0076
  1466.74  1463.51  1469.97  1.90598   0.433   64.32  0.3823  0.0053  0.0071
  1466.74  1463.51  1469.97  1.90598   0.500   60.00  0.4121  0.0057  0.0077
  1466.74  1463.51  1469.97  1.90598   0.567   55.48  0.5076  0.0067  0.0092
  1466.74  1463.51  1469.97  1.90598   0.633   50.70  0.6957  0.0090  0.0125
  1466.74  1463.51  1469.97  1.90598   0.700   45.57  1.0546  0.0133  0.0187
  1466.74  1463.51  1469.97  1.90598   0.767   39.94  1.5553  0.0227  0.0299
  1466.74  1463.51  1469.97  1.90598   0.833   33.56  2.0214  0.0622  0.0671
  1473.19  1469.97  1476.41  1.90915  -0.833  146.44  1.3242  0.0528  0.0553
  1473.19  1469.97  1476.41  1.90915  -0.767  140.06  1.1876  0.0280  0.0317
  1473.19  1469.97  1476.41  1.90915  -0.700  134.43  0.8990  0.0149  0.0187
  1473.19  1469.97  1476.41  1.90915  -0.633  129.30  0.7354  0.0099  0.0135
  1473.19  1469.97  1476.41  1.90915  -0.567  124.52  0.6175  0.0076  0.0108
  1473.19  1469.97  1476.41  1.90915  -0.500  120.00  0.6019  0.0069  0.0102
  1473.19  1469.97  1476.41  1.90915  -0.433  115.68  0.6081  0.0067  0.0101
  1473.19  1469.97  1476.41  1.90915  -0.367  111.51  0.6497  0.0065  0.0104
  1473.19  1469.97  1476.41  1.90915  -0.300  107.46  0.7109  0.0067  0.0111
  1473.19  1469.97  1476.41  1.90915  -0.233  103.49  0.7924  0.0069  0.0121
  1473.19  1469.97  1476.41  1.90915  -0.167   99.59  0.8654  0.0074  0.0131
  1473.19  1469.97  1476.41  1.90915  -0.100   95.74  0.9162  0.0077  0.0138
  1473.19  1469.97  1476.41  1.90915  -0.033   91.91  0.9520  0.0081  0.0144
  1473.19  1469.97  1476.41  1.90915   0.033   88.09  0.9374  0.0082  0.0143
  1473.19  1469.97  1476.41  1.90915   0.100   84.26  0.8886  0.0078  0.0136
  1473.19  1469.97  1476.41  1.90915   0.167   80.41  0.7920  0.0073  0.0123
  1473.19  1469.97  1476.41  1.90915   0.233   76.51  0.6738  0.0068  0.0108
  1473.19  1469.97  1476.41  1.90915   0.300   72.54  0.5356  0.0060  0.0090
  1473.19  1469.97  1476.41  1.90915   0.367   68.49  0.4164  0.0053  0.0074
  1473.19  1469.97  1476.41  1.90915   0.433   64.32  0.3687  0.0051  0.0069
  1473.19  1469.97  1476.41  1.90915   0.500   60.00  0.4175  0.0057  0.0077
  1473.19  1469.97  1476.41  1.90915   0.567   55.48  0.5018  0.0066  0.0091
  1473.19  1469.97  1476.41  1.90915   0.633   50.70  0.7098  0.0094  0.0129
  1473.19  1469.97  1476.41  1.90915   0.700   45.57  1.0934  0.0142  0.0197
  1473.19  1469.97  1476.41  1.90915   0.767   39.94  1.5588  0.0233  0.0304
  1473.19  1469.97  1476.41  1.90915   0.833   33.56  1.9857  0.0626  0.0673
  1479.64  1476.41  1482.88  1.91232  -0.833  146.44  1.3438  0.0505  0.0532
  1479.64  1476.41  1482.88  1.91232  -0.767  140.06  1.1603  0.0271  0.0307
  1479.64  1476.41  1482.88  1.91232  -0.700  134.43  0.9024  0.0145  0.0184
  1479.64  1476.41  1482.88  1.91232  -0.633  129.30  0.7150  0.0096  0.0131
  1479.64  1476.41  1482.88  1.91232  -0.567  124.52  0.6221  0.0075  0.0108
  1479.64  1476.41  1482.88  1.91232  -0.500  120.00  0.5906  0.0067  0.0100
  1479.64  1476.41  1482.88  1.91232  -0.433  115.68  0.5922  0.0064  0.0098
  1479.64  1476.41  1482.88  1.91232  -0.367  111.51  0.6271  0.0062  0.0100
  1479.64  1476.41  1482.88  1.91232  -0.300  107.46  0.7132  0.0064  0.0110
  1479.64  1476.41  1482.88  1.91232  -0.233  103.49  0.7903  0.0066  0.0119
  1479.64  1476.41  1482.88  1.91232  -0.167   99.59  0.8650  0.0070  0.0129
  1479.64  1476.41  1482.88  1.91232  -0.100   95.74  0.9174  0.0073  0.0136
  1479.64  1476.41  1482.88  1.91232  -0.033   91.91  0.9685  0.0078  0.0144
  1479.64  1476.41  1482.88  1.91232   0.033   88.09  0.9324  0.0078  0.0140
  1479.64  1476.41  1482.88  1.91232   0.100   84.26  0.8786  0.0075  0.0133
  1479.64  1476.41  1482.88  1.91232   0.167   80.41  0.8023  0.0071  0.0123
  1479.64  1476.41  1482.88  1.91232   0.233   76.51  0.6623  0.0065  0.0105
  1479.64  1476.41  1482.88  1.91232   0.300   72.54  0.5394  0.0058  0.0089
  1479.64  1476.41  1482.88  1.91232   0.367   68.49  0.4042  0.0051  0.0072
  1479.64  1476.41  1482.88  1.91232   0.433   64.32  0.3566  0.0049  0.0066
  1479.64  1476.41  1482.88  1.91232   0.500   60.00  0.4032  0.0056  0.0075
  1479.64  1476.41  1482.88  1.91232   0.567   55.48  0.4872  0.0062  0.0087
  1479.64  1476.41  1482.88  1.91232   0.633   50.70  0.6890  0.0088  0.0123
  1479.64  1476.41  1482.88  1.91232   0.700   45.57  1.0876  0.0133  0.0190
  1479.64  1476.41  1482.88  1.91232   0.767   39.94  1.5393  0.0217  0.0290
  1479.64  1476.41  1482.88  1.91232   0.833   33.56  1.9502  0.0567  0.0617
  1486.10  1482.88  1489.32  1.91549  -0.833  146.44  1.2286  0.0473  0.0497
  1486.10  1482.88  1489.32  1.91549  -0.767  140.06  1.1273  0.0268  0.0303
  1486.10  1482.88  1489.32  1.91549  -0.700  134.43  0.8589  0.0144  0.0180
  1486.10  1482.88  1489.32  1.91549  -0.633  129.30  0.7127  0.0096  0.0131
  1486.10  1482.88  1489.32  1.91549  -0.567  124.52  0.6071  0.0075  0.0107
  1486.10  1482.88  1489.32  1.91549  -0.500  120.00  0.5851  0.0068  0.0100
  1486.10  1482.88  1489.32  1.91549  -0.433  115.68  0.5767  0.0063  0.0096
  1486.10  1482.88  1489.32  1.91549  -0.367  111.51  0.6319  0.0063  0.0101
  1486.10  1482.88  1489.32  1.91549  -0.300  107.46  0.7036  0.0066  0.0110
  1486.10  1482.88  1489.32  1.91549  -0.233  103.49  0.7742  0.0069  0.0119
  1486.10  1482.88  1489.32  1.91549  -0.167   99.59  0.8698  0.0073  0.0131
  1486.10  1482.88  1489.32  1.91549  -0.100   95.74  0.9378  0.0078  0.0141
  1486.10  1482.88  1489.32  1.91549  -0.033   91.91  0.9714  0.0083  0.0147
  1486.10  1482.88  1489.32  1.91549   0.033   88.09  0.9398  0.0082  0.0143
  1486.10  1482.88  1489.32  1.91549   0.100   84.26  0.8739  0.0078  0.0134
  1486.10  1482.88  1489.32  1.91549   0.167   80.41  0.7897  0.0073  0.0123
  1486.10  1482.88  1489.32  1.91549   0.233   76.51  0.6635  0.0066  0.0106
  1486.10  1482.88  1489.32  1.91549   0.300   72.54  0.5144  0.0059  0.0087
